File: dataset/NCM/V3.6-3.7/CY25-05_1-#1.csv
Cycle,Charge_Current,Discharge_Current,Temperature,Capacity_Increment,Relaxation_Voltage,Discharge_Capacity,Start_Voltage,End_Voltage
2,0.5,1,25,"[0.0, 32.0513, 69.9755, 108.394, 147.3, 189.432, 235.459, 290.112, 347.241, 393.548]","[4.18168, 4.17727, 4.1744, 4.17219, 4.17042, 4.16896, 4.16786, 4.16688, 4.16601, 4.16515, 4.16459, 4.16396, 4.16349, 4.16306]",3221.57,3.6,3.7
7,0.5,1,25,"[0.0, 33.5908, 70.7895, 108.472, 147.076, 188.327, 233.193, 285.507, 343.178, 393.554]","[4.18172, 4.17723, 4.17424, 4.17211, 4.1703, 4.168807, 4.16774, 4.16664, 4.16589, 4.16515, 4.16448, 4.16392, 4.16333, 4.1629]",3212.26,3.6,3.7
12,0.5,1,25,"[0.0, 31.4603, 68.6126, 105.714, 143.764, 184.087, 228.081, 280.177, 337.152, 393.557]","[4.18149, 4.17704, 4.173965, 4.17176, 4.17011, 4.168807, 4.16759, 4.16648, 4.1657, 4.16491, 4.1642, 4.16381, 4.16326, 4.162704]",3199.81,3.6,3.7
17,0.5,1,25,"[0.0, 20.8268, 57.79, 94.3841, 131.939, 171.981, 215.248, 266.604, 323.324, 378.984]","[4.18137, 4.17696, 4.174, 4.1718, 4.17003, 4.16865, 4.16751, 4.16648, 4.165657, 4.16487, 4.1642, 4.16373, 4.16322, 4.16266]",3186.78,3.6,3.7
22,0.5,1,25,"[0.0, 26.196, 62.4945, 98.9682, 136.592, 175.734, 218.956, 268.704, 324.945, 378.972]","[4.18105, 4.1768, 4.173768, 4.1716, 4.16987, 4.16845, 4.16735, 4.16633, 4.16534, 4.16475, 4.16404, 4.16349, 4.16302, 4.16243]",3173.96,3.6,3.7
27,0.5,1,25,"[0.0, 26.8545, 62.8345, 99.4369, 136.275, 175.304, 218.291, 267.226, 323.041, 378.963]","[4.18121, 4.176682, 4.17365, 4.17145, 4.16975, 4.16841, 4.16719, 4.16621, 4.16538, 4.16459, 4.16408, 4.16341, 4.16294, 4.16243]",3162.21,3.6,3.7
32,0.5,1,25,"[0.0, 24.482, 60.4844, 96.8954, 133.914, 172.333, 214.443, 262.738, 318.48, 364.382]","[4.18121, 4.17656, 4.17365, 4.17141, 4.16967, 4.16818, 4.16719, 4.16617, 4.165185, 4.16455, 4.16381, 4.16326, 4.162704, 4.162271]",3151.1,3.6,3.7
37,0.5,1,25,"[0.0, 20.985, 56.554, 92.8258, 129.667, 167.932, 209.679, 257.216, 312.234, 364.388]","[4.18097, 4.17664, 4.17357, 4.17137, 4.16967, 4.1681, 4.16704, 4.16609, 4.16522, 4.16428, 4.16381, 4.16314, 4.16259, 4.16207]",3141.19,3.6,3.7
42,0.5,1,25,"[0.0, 30.0222, 64.8807, 101.195, 137.801, 176.194, 217.19, 264.502, 319.308, 364.182]","[4.18097, 4.17629, 4.173532, 4.17125, 4.16952, 4.16806, 4.1668, 4.16593, 4.16507, 4.16424, 4.16365, 4.16306, 4.16239, 4.162]",3131.57,3.6,3.7
47,0.5,1,25,"[0.0, 26.3703, 61.4578, 97.444, 133.708, 171.879, 212.797, 259.619, 314.012, 364.366]","[4.18089, 4.17633, 4.17334, 4.17117, 4.16944, 4.16798, 4.16684, 4.1657, 4.16487, 4.16424, 4.16365, 4.16298, 4.16239, 4.16188]",3122.68,3.6,3.7
52,0.5,1,25,"[0.0, 20.942, 56.077, 91.8292, 128.119, 165.857, 206.166, 252.903, 307.58, 349.763]","[4.1807, 4.17637, 4.17334, 4.17101, 4.1692, 4.16786, 4.1668, 4.16574, 4.16483, 4.16408, 4.16329, 4.16286, 4.16231, 4.16176]",3113.8,3.6,3.7
57,0.5,1,25,"[0.0, 19.9483, 54.6925, 90.1029, 126.66, 164.262, 205.071, 250.639, 303.953, 349.764]","[4.18058, 4.17625, 4.17314, 4.17101, 4.1692, 4.16774, 4.16676, 4.1657, 4.16483, 4.16408, 4.16333, 4.16274, 4.16223, 4.16176]",3105.81,3.6,3.7
62,0.5,1,25,"[0.0, 29.2607, 64.1364, 99.7763, 135.644, 172.803, 213.286, 258.951, 312.096, 364.023]","[4.18074, 4.17621, 4.17318, 4.17105, 4.1692, 4.16774, 4.1666, 4.16562, 4.16467, 4.164, 4.16337, 4.16282, 4.16231, 4.16184]",3098.14,3.6,3.7
67,0.5,1,25,"[0.0, 20.9321, 55.2468, 90.717, 126.951, 164.414, 204.19, 249.03, 302.006, 349.821]","[4.18074, 4.17617, 4.17306, 4.17097, 4.1692, 4.1677, 4.16652, 4.16562, 4.16471, 4.16392, 4.16329, 4.16263, 4.16215, 4.16168]",3090.99,3.6,3.7
72,0.5,1,25,"[0.0, 32.3901, 66.712, 102.065, 137.949, 175.14, 215.163, 259.922, 311.862, 364.407]","[4.18046, 4.17601, 4.1729, 4.17074, 4.169004, 4.16751, 4.16629, 4.16538, 4.16436, 4.16357, 4.1629, 4.16251, 4.16184, 4.16148]",3084.01,3.6,3.7
77,0.5,1,25,"[0.0, 31.3849, 65.8977, 101.01, 137.315, 174.369, 213.716, 258.468, 310.581, 364.288]","[4.1803, 4.17582, 4.17274, 4.1705, 4.16873, 4.16735, 4.16617, 4.16507, 4.16416, 4.16345, 4.16286, 4.16223, 4.16168, 4.16129]",3077.38,3.6,3.7
82,0.5,1,25,"[0.0, 24.5137, 58.8821, 93.6493, 129.747, 166.743, 206.238, 250.228, 302.138, 349.751]","[4.18026, 4.17582, 4.17271, 4.1705, 4.16873, 4.16731, 4.16621, 4.16511, 4.16416, 4.16349, 4.16278, 4.16215, 4.16156, 4.16113]",3071.17,3.6,3.7
87,0.5,1,25,"[0.0, 30.2636, 64.4262, 99.7348, 135.41, 172.624, 211.533, 255.591, 306.665, 349.71]","[4.18023, 4.17566, 4.17263, 4.17042, 4.16869, 4.16715, 4.16597, 4.16487, 4.16408, 4.16318, 4.16259, 4.16188, 4.16148, 4.16093]",3064.83,3.6,3.7
92,0.5,1,25,"[0.0, 25.3459, 59.2409, 94.3063, 129.916, 166.837, 205.682, 249.918, 301.3, 349.384]","[4.18003, 4.17554, 4.17239, 4.17026, 4.16837, 4.16704, 4.16581, 4.16471, 4.16377, 4.16314, 4.16251, 4.16184, 4.16125, 4.16077]",3058.61,3.6,3.7
97,0.5,1,25,"[0.0, 19.6162, 53.5319, 88.5087, 124.204, 160.962, 200.136, 243.415, 294.578, 349.795]","[4.180068, 4.175343, 4.17239, 4.170146, 4.1683, 4.1668, 4.16574, 4.16463, 4.16373, 4.1629, 4.16231, 4.1616, 4.16113, 4.16066]",3052.61,3.6,3.7
102,0.5,1,25,"[0.0, 27.4081, 61.5197, 96.6999, 131.777, 169.05, 207.69, 250.985, 301.956, 349.656]","[4.17999, 4.175343, 4.17231, 4.16995, 4.1683, 4.16676, 4.16558, 4.16455, 4.16369, 4.16294, 4.16219, 4.16172, 4.16113, 4.1605]",3046.89,3.6,3.7
107,0.5,1,25,"[0.0, 18.7476, 52.486, 87.2746, 122.968, 159.526, 198.186, 241.507, 291.142, 335.002]","[4.17991, 4.175343, 4.17231, 4.16995, 4.16818, 4.16668, 4.16562, 4.16432, 4.16357, 4.16278, 4.16211, 4.16172, 4.16097, 4.1605]",3041.44,3.6,3.7
112,0.5,1,25,"[0.0, 24.2453, 57.953, 92.6317, 127.881, 164.654, 203.409, 245.89, 295.895, 349.161]","[4.179832, 4.1753, 4.17215, 4.16999, 4.1681, 4.16664, 4.165421, 4.16436, 4.16349, 4.16278, 4.16207, 4.16141, 4.16085, 4.16054]",3035.88,3.6,3.7
117,0.5,1,25,"[0.0, 29.7131, 63.0139, 98.0416, 133.379, 169.661, 208.33, 250.86, 300.516, 349.63]","[4.17967, 4.175107, 4.17211, 4.16975, 4.16794, 4.16644, 4.1653, 4.1642, 4.16329, 4.16263, 4.16176, 4.16113, 4.16077, 4.16022]",3030.13,3.6,3.7
122,0.5,1,25,"[0.0, 23.7336, 57.1728, 91.967, 127.105, 163.4, 202.019, 244.571, 293.461, 334.925]","[4.17975, 4.17503, 4.17184, 4.16952, 4.16782, 4.16633, 4.16503, 4.16396, 4.16326, 4.16231, 4.16164, 4.16093, 4.16042, 4.15995]",3024.45,3.6,3.7
127,0.5,1,25,"[0.0, 29.6939, 62.9311, 97.5715, 132.797, 168.891, 207.399, 249.596, 298.479, 349.338]","[4.17956, 4.174871, 4.171957, 4.16959, 4.16774, 4.16613, 4.164988, 4.163846, 4.16306, 4.16215, 4.16137, 4.16085, 4.16022, 4.15975]",3018.58,3.6,3.7
132,0.5,1,25,"[0.0, 32.1047, 64.8811, 99.4486, 134.252, 170.533, 208.487, 250.78, 299.251, 348.531]","[4.1796, 4.17483, 4.1718, 4.16948, 4.16763, 4.16613, 4.16491, 4.16381, 4.16278, 4.16196, 4.16144, 4.16062, 4.16014, 4.15963]",3012.92,3.6,3.7
137,0.5,1,25,"[0.0, 22.7655, 55.3946, 89.9295, 125.103, 161.144, 199.246, 240.863, 289.642, 334.269]","[4.179635, 4.17495, 4.17176, 4.16952, 4.1677, 4.16613, 4.16487, 4.16389, 4.16282, 4.16207, 4.16129, 4.16066, 4.16018, 4.15944]",3007.25,3.6,3.7
142,0.5,1,25,"[0.0, 27.7391, 60.779, 95.2465, 129.746, 165.904, 204.122, 245.332, 293.048, 334.488]","[4.17956, 4.17483, 4.1718, 4.16948, 4.16763, 4.16605, 4.16495, 4.16373, 4.16282, 4.16215, 4.16129, 4.160696, 4.16011, 4.15963]",3001.66,3.6,3.7
147,0.5,1,25,"[0.0, 20.5705, 53.2956, 86.7981, 122.567, 158.056, 195.751, 236.905, 284.842, 334.171]","[4.17936, 4.17475, 4.17168, 4.1694, 4.16747, 4.16597, 4.16483, 4.16365, 4.162704, 4.16188, 4.16117, 4.16042, 4.15995, 4.159318]",2995.09,3.6,3.7
152,0.5,1,25,"[0.0, 28.1585, 60.9745, 94.4915, 129.295, 164.723, 202.183, 243.696, 290.863, 334.18]","[4.17936, 4.17463, 4.17156, 4.1692, 4.16739, 4.16581, 4.16467, 4.16353, 4.16263, 4.16176, 4.16101, 4.1605, 4.15983, 4.15924]",2988.04,3.6,3.7
157,0.5,1,25,"[0.0, 22.5278, 54.7166, 88.7632, 123.421, 158.96, 196.548, 237.082, 284.646, 334.404]","[4.17916, 4.17448, 4.17133, 4.16912, 4.16711, 4.16574, 4.16436, 4.16345, 4.16239, 4.1616, 4.16081, 4.16018, 4.15963, 4.15908]",2980.49,3.6,3.7
162,0.5,1,25,"[0.0, 17.7234, 50.1323, 83.5398, 118.104, 153.735, 191.072, 231.343, 278.689, 319.388]","[4.17924, 4.17452, 4.17133, 4.16904, 4.16711, 4.1657, 4.16444, 4.16333, 4.16239, 4.16148, 4.16074, 4.16011, 4.15963, 4.159]",2972.44,3.6,3.7
167,0.5,1,25,"[0.0, 26.0773, 57.9161, 91.6219, 125.903, 161.079, 198.091, 239.057, 285.14, 333.136]","[4.17897, 4.17424, 4.17101, 4.16873, 4.16688, 4.165421, 4.16404, 4.16298, 4.16192, 4.16113, 4.1605, 4.15963, 4.159121, 4.15865]",2963.76,3.6,3.7
172,0.5,1,25,"[0.0, 25.184, 56.8992, 90.1752, 124.797, 159.518, 196.902, 237.256, 283.294, 333.421]","[4.17897, 4.1742, 4.17105, 4.168807, 4.1668, 4.1653, 4.16408, 4.16294, 4.16207, 4.16109, 4.16046, 4.15963, 4.159121, 4.15849]",2955.91,3.6,3.7
177,0.5,1,25,"[0.0, 22.9666, 54.4174, 87.5825, 122.015, 156.921, 193.867, 234.127, 279.695, 332.622]","[4.17893, 4.17416, 4.17089, 4.16849, 4.16672, 4.16534, 4.16381, 4.16282, 4.1618, 4.16093, 4.1603, 4.15963, 4.15904, 4.15833]",2947.36,3.6,3.7
182,0.5,1,25,"[0.0, 17.4871, 48.9698, 81.8102, 116.063, 150.948, 187.156, 227.242, 272.623, 318.489]","[4.17877, 4.17381, 4.1707, 4.1683, 4.16648, 4.16503, 4.16365, 4.162468, 4.16156, 4.16093, 4.16007, 4.1594, 4.15877, 4.15818]",2938.08,3.6,3.7
187,0.5,1,25,"[0.0, 29.3085, 60.4796, 93.3115, 127.24, 162.113, 198.505, 238.332, 283.975, 331.343]","[4.17861, 4.173965, 4.17078, 4.16841, 4.16641, 4.16487, 4.16353, 4.16243, 4.16141, 4.16066, 4.15983, 4.1592, 4.15857, 4.15802]",2930.24,3.6,3.7
192,0.5,1,25,"[0.0, 20.7463, 51.7415, 83.9649, 118.096, 152.684, 188.938, 228.24, 273.333, 317.7]","[4.17849, 4.17369, 4.170382, 4.16806, 4.16613, 4.16459, 4.16322, 4.16231, 4.16121, 4.1603, 4.15963, 4.15885, 4.15822, 4.1577]",2922.09,3.6,3.7
193,0.5,1,25,"[0.0, 30.0102, 61.0763, 93.723, 126.787, 161.427, 197.858, 237.466, 282.193, 331.126]","[4.17853, 4.17369, 4.1705, 4.168138, 4.16621, 4.16479, 4.16322, 4.16239, 4.16125, 4.1603, 4.15951, 4.15892, 4.15833, 4.157743]",2920.51,3.6,3.7