File: dataset/NCM/V3.6-3.7/CY35-05_1-#1.csv
Cycle,Charge_Current,Discharge_Current,Temperature,Capacity_Increment,Relaxation_Voltage,Discharge_Capacity,Start_Voltage,End_Voltage
2,0.5,1,35,"[0.0, 32.3705, 70.7456, 108.138, 146.081, 187.193, 230.76, 281.736, 337.135, 393.789]","[4.18538, 4.18223, 4.17983, 4.17802, 4.1768, 4.17558, 4.17467, 4.17381, 4.17306, 4.172545, 4.17184, 4.17152, 4.17089, 4.17038]",3206.96,3.6,3.7
29,0.5,1,35,"[0.0, 25.7947, 62.7385, 100.275, 137.973, 176.186, 217.212, 262.161, 315.257, 364.528]","[4.18389, 4.18018, 4.1777, 4.17589, 4.17436, 4.17314, 4.17207, 4.17129, 4.1705, 4.16983, 4.1692, 4.16873, 4.1681, 4.168056]",3111.71,3.6,3.7
58,0.5,1,35,"[0.0, 25.3849, 61.3188, 97.779, 134.925, 172.315, 211.904, 255.089, 305.014, 350.029]","[4.18365, 4.18003, 4.17766, 4.1757, 4.17416, 4.17294, 4.17199, 4.17121, 4.17038, 4.16975, 4.16916, 4.16865, 4.16817, 4.16774]",3059.3,3.6,3.7
85,0.5,1,35,"[0.0, 21.1899, 56.7242, 93.3236, 129.618, 166.498, 204.871, 247.416, 296.045, 335.372]","[4.18326, 4.17948, 4.17696, 4.175065, 4.17353, 4.17231, 4.17125, 4.17034, 4.16967, 4.16896, 4.16829, 4.1679, 4.16747, 4.16687]",3024.08,3.6,3.7
114,0.5,1,35,"[0.0, 33.1164, 67.9889, 103.65, 140.269, 176.316, 214.954, 256.041, 303.055, 349.789]","[4.18266, 4.17885, 4.17629, 4.17447, 4.17294, 4.17156, 4.17046, 4.16975, 4.16892, 4.16817, 4.16762, 4.16703, 4.16644, 4.16601]",2993.93,3.6,3.7
141,0.5,1,35,"[0.0, 20.9452, 54.9392, 90.9488, 126.863, 163.458, 201.204, 241.516, 287.33, 335.088]","[4.18259, 4.17877, 4.17589, 4.17408, 4.17243, 4.17125, 4.17018, 4.16912, 4.16853, 4.16766, 4.16711, 4.16676, 4.166048, 4.16561]",2970.24,3.6,3.7
170,0.5,1,35,"[0.0, 26.3048, 60.8515, 95.9875, 131.521, 167.974, 205.073, 245.095, 289.405, 334.86]","[4.181838, 4.177979, 4.17522, 4.17321, 4.1716, 4.17042, 4.16928, 4.16833, 4.1675, 4.1668, 4.16632, 4.16561, 4.16506, 4.16471]",2948.15,3.6,3.7
197,0.5,1,35,"[0.0, 29.0163, 63.1724, 98.0515, 133.941, 169.39, 206.453, 246.523, 289.968, 335.293]","[4.18176, 4.1777, 4.17499, 4.17282, 4.17109, 4.16999, 4.16877, 4.16794, 4.16699, 4.16632, 4.16565, 4.16526, 4.16471, 4.16416]",2928.64,3.6,3.7
226,0.5,1,35,"[0.0, 28.7542, 62.7101, 97.3259, 132.584, 168.451, 204.737, 243.428, 286.332, 320.459]","[4.18117, 4.17707, 4.17428, 4.17215, 4.17062, 4.16928, 4.16798, 4.16711, 4.16628, 4.1655, 4.16495, 4.16424, 4.1638, 4.16321]",2908.92,3.6,3.7
253,0.5,1,35,"[0.0, 31.2316, 64.6685, 98.5745, 134.165, 169.248, 206.215, 244.918, 286.753, 334.525]","[4.18081, 4.17676, 4.17392, 4.17176, 4.17014, 4.16877, 4.16758, 4.16652, 4.16565, 4.16495, 4.16435, 4.16372, 4.16298, 4.16254]",2892.91,3.6,3.7
282,0.5,1,35,"[0.0, 20.9734, 53.7508, 87.3075, 123.022, 158.664, 194.46, 232.557, 274.515, 319.44]","[4.18058, 4.17636, 4.17341, 4.17129, 4.169631, 4.16821, 4.166914, 4.16597, 4.165103, 4.16432, 4.16369, 4.16317, 4.16254, 4.16207]",2875.87,3.6,3.7
311,0.5,1,35,"[0.0, 22.8254, 55.5182, 89.2292, 124.219, 159.57, 195.48, 232.466, 274.14, 319.462]","[4.18011, 4.1757, 4.1729, 4.17073, 4.16892, 4.16739, 4.166245, 4.16526, 4.16432, 4.16357, 4.16274, 4.16203, 4.16156, 4.161047]",2859.76,3.6,3.7
338,0.5,1,35,"[0.0, 25.6356, 58.0374, 90.7832, 125.264, 160.245, 196.155, 234.068, 274.946, 318.204]","[4.17948, 4.1751, 4.17223, 4.17002, 4.16817, 4.166678, 4.1655, 4.16439, 4.163528, 4.16286, 4.16191, 4.161283, 4.16069, 4.16038]",2845.15,3.6,3.7
367,0.5,1,35,"[0.0, 28.9483, 60.8778, 94.3456, 128.585, 163.607, 198.466, 235.974, 275.918, 318.224]","[4.17904, 4.17459, 4.17172, 4.16947, 4.1675, 4.16628, 4.16495, 4.16392, 4.16298, 4.16215, 4.16148, 4.160614, 4.16014, 4.15955]",2829.86,3.6,3.7
394,0.5,1,35,"[0.0, 24.5866, 55.6259, 88.6989, 122.737, 157.795, 193.325, 230.218, 269.488, 303.359]","[4.17877, 4.174396, 4.1714, 4.16908, 4.16727, 4.16585, 4.16455, 4.16337, 4.1625, 4.16164, 4.16089, 4.1603, 4.15975, 4.15896]",2815.94,3.6,3.7
423,0.5,1,35,"[0.0, 25.4101, 56.6891, 89.3234, 123.08, 157.591, 193.062, 229.531, 268.762, 302.399]","[4.17837, 4.17381, 4.17081, 4.16845, 4.16656, 4.16502, 4.16372, 4.1627, 4.16172, 4.16085, 4.16002, 4.15935, 4.15872, 4.15821]",2801.51,3.6,3.7
450,0.5,1,35,"[0.0, 19.5185, 50.2803, 82.1357, 115.892, 150.615, 185.68, 221.644, 260.845, 288.275]","[4.17806, 4.17349, 4.17046, 4.16813, 4.16609, 4.16455, 4.16329, 4.16211, 4.16124, 4.16034, 4.15943, 4.15876, 4.15829, 4.15754]",2788.31,3.6,3.7
479,0.5,1,35,"[0.0, 27.4489, 57.8561, 89.966, 123.221, 157.051, 192.149, 227.724, 266.304, 300.99]","[4.17731, 4.17278, 4.16971, 4.16727, 4.1653, 4.16392, 4.16246, 4.16132, 4.16038, 4.159472, 4.15865, 4.15809, 4.15727, 4.15668]",2773.76,3.6,3.7
506,0.5,1,35,"[0.0, 21.4141, 51.6938, 83.1862, 116.428, 150.09, 185.16, 220.733, 258.908, 286.29]","[4.17672, 4.17219, 4.16896, 4.16644, 4.16479, 4.16298, 4.1618, 4.16065, 4.15939, 4.15868, 4.15778, 4.15715, 4.15644, 4.155849]",2761.28,3.6,3.7
535,0.5,1,35,"[0.0, 25.7184, 55.8954, 87.0626, 120.028, 153.724, 188.164, 223.751, 261.116, 299.544]","[4.1766, 4.17188, 4.16873, 4.1664, 4.16435, 4.16278, 4.16148, 4.16022, 4.15924, 4.15837, 4.1575, 4.15664, 4.15597, 4.15546]",2747.72,3.6,3.7
564,0.5,1,35,"[0.0, 28.0956, 57.7375, 88.8678, 121.536, 155.107, 188.687, 224.519, 261.615, 298.653]","[4.17609, 4.17129, 4.16794, 4.1655, 4.16361, 4.16176, 4.1605, 4.15931, 4.15825, 4.15735, 4.1564, 4.15573, 4.1551, 4.15439]",2734.72,3.6,3.7
591,0.5,1,35,"[0.0, 28.0217, 57.6032, 88.4346, 120.994, 153.842, 188.047, 222.984, 260.276, 297.086]","[4.17566, 4.17069, 4.16758, 4.16522, 4.16306, 4.161283, 4.15983, 4.15876, 4.15782, 4.15672, 4.15589, 4.15506, 4.15447, 4.15384]",2722.56,3.6,3.7
620,0.5,1,35,"[0.0, 18.0245, 47.1693, 77.954, 109.528, 142.568, 176.568, 211.573, 248.202, 283.931]","[4.1753, 4.17034, 4.16707, 4.16459, 4.1625, 4.16097, 4.15939, 4.15833, 4.15715, 4.15624, 4.15538, 4.15467, 4.154, 4.15333]",2709.76,3.6,3.7
647,0.5,1,35,"[0.0, 17.8023, 46.7265, 77.0184, 108.383, 141.864, 175.297, 209.723, 246.049, 282.709]","[4.17459, 4.169631, 4.1664, 4.1638, 4.16187, 4.16018, 4.15872, 4.15746, 4.15632, 4.15549, 4.15471, 4.15392, 4.153132, 4.152463]",2697.17,3.6,3.7
676,0.5,1,35,"[0.0, 22.1184, 51.4727, 81.034, 112.697, 145.419, 179.268, 213.246, 249.159, 281.466]","[4.17396, 4.16912, 4.16565, 4.16317, 4.16124, 4.15943, 4.15798, 4.156755, 4.15561, 4.15483, 4.1538, 4.15305, 4.1525, 4.15171]",2685.24,3.6,3.7
703,0.5,1,35,"[0.0, 26.9294, 55.9963, 85.8518, 116.849, 149.432, 182.351, 216.679, 252.255, 279.524]","[4.17341, 4.16841, 4.165103, 4.16254, 4.16053, 4.15872, 4.15727, 4.15601, 4.15494, 4.15384, 4.15297, 4.15223, 4.1514, 4.15085]",2673.03,3.6,3.7
732,0.5,1,35,"[0.0, 21.9081, 50.7857, 80.3877, 110.907, 143.171, 176.148, 210.187, 246.05, 280.242]","[4.17306, 4.16782, 4.16443, 4.16176, 4.15967, 4.15809, 4.156755, 4.15522, 4.1542, 4.15321, 4.15238, 4.151557, 4.15101, 4.15018]",2660.14,3.6,3.7
759,0.5,1,35,"[0.0, 17.1776, 45.5543, 75.1644, 105.508, 137.261, 170.316, 204.24, 238.754, 265.59]","[4.172545, 4.16739, 4.164197, 4.16144, 4.15943, 4.15778, 4.15616, 4.15494, 4.15396, 4.1529, 4.15187, 4.1512, 4.15045, 4.1499]",2649.36,3.6,3.7
788,0.5,1,35,"[0.0, 20.4403, 48.6852, 78.0788, 108.225, 139.751, 172.579, 206.024, 240.733, 263.471]","[4.17195, 4.166678, 4.16321, 4.16057, 4.15849, 4.15672, 4.1553, 4.15412, 4.15297, 4.15195, 4.15108, 4.1503, 4.14947, 4.14884]",2636.9,3.6,3.7
815,0.5,1,35,"[0.0, 18.4689, 46.7166, 75.382, 105.505, 136.819, 169.362, 202.813, 237.06, 261.231]","[4.17121, 4.166048, 4.16266, 4.15983, 4.1577, 4.15616, 4.15447, 4.15325, 4.15211, 4.15097, 4.15034, 4.14939, 4.1486, 4.14805]",2624.35,3.6,3.7
844,0.5,1,35,"[0.0, 20.8289, 48.7664, 77.6365, 107.368, 138.213, 170.498, 203.21, 237.38, 259.849]","[4.17062, 4.16538, 4.16211, 4.15924, 4.15719, 4.15542, 4.15392, 4.15258, 4.1514, 4.15053, 4.14943, 4.14876, 4.14805, 4.14719]",2612.62,3.6,3.7
873,0.5,1,35,"[0.0, 25.3209, 53.1317, 81.6224, 111.088, 141.931, 173.596, 206.668, 240.735, 272.741]","[4.1703, 4.16495, 4.1614, 4.15861, 4.15648, 4.15467, 4.15309, 4.15191, 4.15073, 4.14963, 4.14868, 4.14793, 4.14723, 4.1466]",2600.04,3.6,3.7
900,0.5,1,35,"[0.0, 22.7548, 50.4248, 78.7623, 107.996, 138.405, 169.875, 202.736, 236.606, 271.599]","[4.16987, 4.16447, 4.16081, 4.15825, 4.15605, 4.15439, 4.152699, 4.1516, 4.15026, 4.14931, 4.14833, 4.14758, 4.14675, 4.14616]",2589.76,3.6,3.7
929,0.5,1,35,"[0.0, 15.8093, 43.2264, 71.3052, 100.457, 130.602, 162.021, 194.4, 228.054, 257.282]","[4.16904, 4.163764, 4.16002, 4.15731, 4.15522, 4.15341, 4.15179, 4.15049, 4.14939, 4.14833, 4.14742, 4.14667, 4.14581, 4.14518]",2577.5,3.6,3.7
956,0.5,1,35,"[0.0, 20.8504, 48.084, 75.8893, 104.77, 134.667, 165.675, 197.688, 230.975, 254.858]","[4.16861, 4.16306, 4.15963, 4.15679, 4.15463, 4.15294, 4.15128, 4.15006, 4.14888, 4.14789, 4.14695, 4.14616, 4.14534, 4.14474]",2565.51,3.6,3.7
985,0.5,1,35,"[0.0, 15.5468, 42.4203, 70.1735, 98.7538, 128.642, 159.415, 190.962, 224.408, 255.211]","[4.1679, 4.16254, 4.15892, 4.15612, 4.154, 4.152266, 4.15065, 4.14935, 4.14813, 4.14711, 4.1462, 4.145493, 4.14471, 4.144]",2554.36,3.6,3.7
1012,0.5,1,35,"[0.0, 22.7678, 49.7665, 77.2209, 105.771, 135.103, 165.505, 197.031, 229.956, 252.251]","[4.16735, 4.16187, 4.15829, 4.15553, 4.15333, 4.151557, 4.149982, 4.1486, 4.14742, 4.14644, 4.14569, 4.144784, 4.14396, 4.143209]",2543.88,3.6,3.7
1041,0.5,1,35,"[0.0, 16.6022, 43.2814, 70.5255, 98.9042, 128.213, 158.557, 189.771, 222.295, 252.357]","[4.16676, 4.16124, 4.15754, 4.15467, 4.152699, 4.15081, 4.14919, 4.14809, 4.14687, 4.14569, 4.14506, 4.14404, 4.14317, 4.14254]",2532.35,3.6,3.7
1068,0.5,1,35,"[0.0, 22.9092, 49.3762, 76.5395, 104.406, 133.666, 163.745, 194.986, 227.212, 248.814]","[4.16601, 4.16042, 4.15683, 4.154, 4.15183, 4.149982, 4.1486, 4.14715, 4.146, 4.144784, 4.144, 4.14309, 4.1423, 4.14175]",2521.59,3.6,3.7
1097,0.5,1,35,"[0.0, 15.4683, 41.8478, 68.9359, 96.9034, 125.463, 155.604, 186.419, 217.967, 249.296]","[4.16554, 4.15983, 4.15612, 4.15341, 4.1512, 4.14923, 4.14789, 4.1466, 4.14522, 4.14439, 4.14345, 4.14242, 4.14179, 4.14096]",2510.35,3.6,3.7
1124,0.5,1,35,"[0.0, 14.7713, 41.0111, 67.8795, 95.4353, 124.141, 153.86, 184.581, 216.104, 248.11]","[4.16522, 4.15959, 4.15573, 4.15282, 4.15077, 4.14888, 4.1473, 4.14604, 4.14498, 4.14388, 4.14297, 4.14195, 4.14124, 4.14057]",2500.14,3.6,3.7